wavelength,reflectance
381.450012,0.006642
386.459991,0.009094
391.470001,0.014168
396.470001,0.017066
401.480011,0.018428
406.48999,0.02111
411.5,0.0238
416.51001,0.024399
421.519989,0.027343
426.529999,0.028069
431.540009,0.030752
436.540009,0.03213
441.549988,0.033465
446.559998,0.034394
451.570007,0.035949
456.579987,0.036749
461.589996,0.038028
466.600006,0.038441
471.600006,0.039348
476.609985,0.039683
481.619995,0.040917
486.630005,0.041775
491.640015,0.042966
496.649994,0.042996
501.660004,0.044593
506.670013,0.045289
511.670013,0.048314
516.679993,0.051922
521.690002,0.055701
526.700012,0.061321
531.710022,0.064652
536.719971,0.067167
541.72998,0.069412
546.72998,0.070286
551.73999,0.07165
556.75,0.071777
561.76001,0.070115
566.77002,0.068306
571.780029,0.065723
576.789978,0.06384
581.799988,0.062182
586.799988,0.061733
591.809998,0.061452
596.820007,0.060933
601.830017,0.059736
606.840027,0.058676
611.849976,0.057617
616.859985,0.056057
621.859985,0.056116
626.869995,0.055837
631.880005,0.055986
636.890015,0.055589
641.900024,0.054388
646.909973,0.053979
651.919983,0.052409
656.929993,0.052321
661.929993,0.050645
666.940002,0.049203
671.950012,0.048395
676.960022,0.048293
681.969971,0.049041
686.97998,0.052139
691.98999,0.056344
696.98999,0.067666
702.0,0.081003
707.01001,0.097573
712.02002,0.115472
717.030029,0.137458
722.039978,0.166874
727.049988,0.196441
732.059998,0.218931
737.059998,0.235595
742.070007,0.25302
747.080017,0.264375
752.090027,0.275574
757.099976,0.273103
762.109985,0.283664
767.119995,0.293731
772.119995,0.29108
777.130005,0.292922
782.140015,0.296265
787.150024,0.299354
792.159973,0.300031
797.169983,0.301489
802.179993,0.303783
807.190002,0.303319
812.190002,0.304488
817.200012,0.312217
822.210022,0.312637
827.219971,0.313148
832.22998,0.314114
837.23999,0.314976
842.25,0.312219
847.25,0.311746
852.26001,0.314259
857.27002,0.317115
862.280029,0.314149
867.289978,0.315237
872.299988,0.317495
877.309998,0.318602
882.320007,0.315555
887.320007,0.319343
892.330017,0.31792
897.340027,0.319876
902.349976,0.323038
907.359985,0.319722
912.369995,0.324933
917.380005,0.327276
922.390015,0.324367
927.390015,0.318946
932.400024,0.328476
937.409973,0.347276
942.419983,0.327341
947.429993,0.325142
952.440002,0.323996
957.450012,0.315253
962.450012,0.315996
967.460022,0.308617
972.469971,0.303587
977.47998,0.308153
982.48999,0.307068
987.5,0.309223
992.51001,0.308597
997.52002,0.309793
1002.52002,0.317197
1007.530029,0.316106
1012.539978,0.320384
1017.549988,0.321356
1022.559998,0.325654
1027.569946,0.328872
1032.579956,0.332085
1037.579956,0.329856
1042.589966,0.334737
1047.599976,0.336261
1052.609985,0.336736
1057.619995,0.337907
1062.630005,0.340893
1067.640015,0.342015
1072.650024,0.342512
1077.650024,0.342861
1082.660034,0.343459
1087.670044,0.344693
1092.680054,0.344413
1097.689941,0.342348
1102.699951,0.345054
1107.709961,0.33928
1112.709961,0.332887
1117.719971,0.339893
1122.72998,0.350403
1127.73999,0.347163
1132.75,0.316419
1137.76001,0.311582
1142.77002,0.29516
1147.780029,0.310174
1152.780029,0.29687
1157.790039,0.289169
1162.800049,0.282156
1167.810059,0.281194
1172.819946,0.28135
1177.829956,0.278494
1182.839966,0.281432
1187.839966,0.278726
1192.849976,0.279376
1197.859985,0.278917
1202.869995,0.27868
1207.880005,0.274719
1212.890015,0.277537
1217.900024,0.279314
1222.910034,0.280385
1227.910034,0.28271
1232.920044,0.286017
1237.930054,0.287311
1242.939941,0.287958
1247.949951,0.288377
1252.959961,0.288786
1257.969971,0.290811
1262.969971,0.290579
1267.97998,0.291832
1272.98999,0.291906
1278.0,0.291122
1283.01001,0.286181
1288.02002,0.287956
1293.030029,0.284487
1298.040039,0.280498
1303.040039,0.276316
1308.050049,0.27524
1313.060059,0.271464
1318.069946,0.261017
1323.079956,0.253797
1328.089966,0.246829
1333.099976,0.237293
1338.099976,0.230421
1343.109985,0.221932
1433.27002,0.126266
1438.280029,0.122528
1443.290039,0.117005
1448.300049,0.094702
1453.300049,0.085418
1458.310059,0.079092
1463.319946,0.082233
1468.329956,0.094337
1473.339966,0.08746
1478.349976,0.087848
1483.359985,0.087573
1488.359985,0.088724
1493.369995,0.088216
1498.380005,0.088157
1503.390015,0.091878
1508.400024,0.09358
1513.410034,0.097744
1518.420044,0.100337
1523.430054,0.103024
1528.430054,0.106863
1533.439941,0.109678
1538.449951,0.113579
1543.459961,0.115631
1548.469971,0.119137
1553.47998,0.121413
1558.48999,0.12662
1563.48999,0.130394
1568.5,0.130762
1573.51001,0.133625
1578.52002,0.136382
1583.530029,0.139272
1588.540039,0.142966
1593.550049,0.144054
1598.560059,0.145989
1603.560059,0.147712
1608.569946,0.150872
1613.579956,0.151464
1618.589966,0.154129
1623.599976,0.155456
1628.609985,0.158199
1633.619995,0.158396
1638.619995,0.159714
1643.630005,0.161274
1648.640015,0.163137
1653.650024,0.164549
1658.660034,0.16356
1663.670044,0.163942
1668.680054,0.163357
1673.689941,0.163837
1678.689941,0.164359
1683.699951,0.163119
1688.709961,0.163157
1693.719971,0.163153
1698.72998,0.16028
1703.73999,0.159074
1708.75,0.158959
1713.75,0.157127
1718.76001,0.155713
1723.77002,0.154604
1728.780029,0.152509
1733.790039,0.150718
1738.800049,0.149202
1743.810059,0.147019
1748.819946,0.143466
1753.819946,0.141946
1758.829956,0.139362
1763.839966,0.13631
1768.849976,0.13308
1773.859985,0.131235
1954.170044,0.056801
1959.180054,0.05089
1964.189941,0.04273
1969.199951,0.038421
1974.209961,0.037149
1979.209961,0.037436
1984.219971,0.037925
1989.22998,0.038989
1994.23999,0.03938
1999.25,0.039469
2004.26001,0.044084
2009.27002,0.044
2014.280029,0.045993
2019.280029,0.044197
2024.290039,0.045063
2029.300049,0.045504
2034.310059,0.046282
2039.319946,0.047673
2044.329956,0.050037
2049.340088,0.049015
2054.340088,0.049979
2059.350098,0.052604
2064.360107,0.054243
2069.370117,0.053427
2074.379883,0.055718
2079.389893,0.056846
2084.399902,0.058018
2089.409912,0.058795
2094.409912,0.061665
2099.419922,0.061044
2104.429932,0.063036
2109.439941,0.064341
2114.449951,0.064349
2119.459961,0.066162
2124.469971,0.065603
2129.469971,0.067673
2134.47998,0.068963
2139.48999,0.068823
2144.5,0.069351
2149.51001,0.070467
2154.52002,0.072042
2159.530029,0.071672
2164.540039,0.072672
2169.540039,0.072674
2174.550049,0.074719
2179.560059,0.074625
2184.570068,0.076152
2189.580078,0.075902
2194.590088,0.075822
2199.600098,0.07507
2204.600098,0.076678
2209.610107,0.077546
2214.620117,0.076992
2219.629883,0.075803
2224.639893,0.075152
2229.649902,0.074255
2234.659912,0.074056
2239.669922,0.073332
2244.669922,0.071803
2249.679932,0.069446
2254.689941,0.068723
2259.699951,0.067202
2264.709961,0.066476
2269.719971,0.064558
2274.72998,0.063652
2279.72998,0.061977
2284.73999,0.061482
2289.75,0.059743
2294.76001,0.059129
2299.77002,0.056408
2304.780029,0.055619
2309.790039,0.054327
2314.800049,0.0538
2319.800049,0.052716
2324.810059,0.052733
2329.820068,0.050545
2334.830078,0.049191
2339.840088,0.048159
2344.850098,0.04708
2349.860107,0.045121
2354.860107,0.045106
2359.870117,0.044008
2364.879883,0.04263
2369.889893,0.043243
2374.899902,0.041529
2379.909912,0.042255
2384.919922,0.0418
2389.929932,0.039612
2394.929932,0.038239
2399.939941,0.035017
2404.949951,0.03567
2409.959961,0.037634
2414.969971,0.037474
2419.97998,0.037241
2424.98999,0.031589
2429.98999,0.030447
2435.0,0.032201
2440.01001,0.030812
2445.02002,0.030723
2450.030029,0.033188
2455.040039,0.027355
2460.050049,0.025689
2465.060059,0.02763
2470.060059,0.025795
2475.070068,0.035429
2480.080078,0.045741
2485.090088,0.120157
2490.100098,0.190561
2495.110107,0.125928
2500.120117,0.060198
