wavelength,reflectance
381.450012,0.009082
386.459991,0.012454
391.470001,0.012358
396.470001,0.014411
401.480011,0.015925
406.48999,0.017011
411.5,0.018059
416.51001,0.019037
421.519989,0.020381
426.529999,0.021144
431.540009,0.024424
436.540009,0.023349
441.549988,0.024699
446.559998,0.025619
451.570007,0.026079
456.579987,0.027176
461.589996,0.027331
466.600006,0.027778
471.600006,0.027979
476.609985,0.02837
481.619995,0.028987
486.630005,0.028645
491.640015,0.028775
496.649994,0.029089
501.660004,0.029925
506.670013,0.030037
511.670013,0.032147
516.679993,0.034651
521.690002,0.037854
526.700012,0.041046
531.710022,0.043835
536.719971,0.045862
541.72998,0.046883
546.72998,0.047662
551.73999,0.047861
556.75,0.047354
561.76001,0.046403
566.77002,0.044084
571.780029,0.04168
576.789978,0.039739
581.799988,0.037791
586.799988,0.036969
591.809998,0.036434
596.820007,0.035579
601.830017,0.035517
606.840027,0.034505
611.849976,0.033719
616.859985,0.032333
621.859985,0.03189
626.869995,0.031365
631.880005,0.031137
636.890015,0.030702
641.900024,0.030205
646.909973,0.029056
651.919983,0.028835
656.929993,0.027911
661.929993,0.027091
666.940002,0.026371
671.950012,0.02644
676.960022,0.025848
681.969971,0.026474
686.97998,0.028198
691.98999,0.032807
696.98999,0.039703
702.0,0.052741
707.01001,0.067028
712.02002,0.082552
717.030029,0.103227
722.039978,0.12828
727.049988,0.155741
732.059998,0.184689
737.059998,0.212783
742.070007,0.239578
747.080017,0.262197
752.090027,0.277434
757.099976,0.284529
762.109985,0.289999
767.119995,0.300271
772.119995,0.301713
777.130005,0.304101
782.140015,0.306932
787.150024,0.307318
792.159973,0.308209
797.169983,0.310709
802.179993,0.312257
807.190002,0.314014
812.190002,0.312768
817.200012,0.316835
822.210022,0.315675
827.219971,0.315356
832.22998,0.315751
837.23999,0.313926
842.25,0.314845
847.25,0.315371
852.26001,0.315048
857.27002,0.314709
862.280029,0.315775
867.289978,0.315819
872.299988,0.314089
877.309998,0.315691
882.320007,0.31557
887.320007,0.315723
892.330017,0.315905
897.340027,0.31708
902.349976,0.317927
907.359985,0.31545
912.369995,0.316619
917.380005,0.315794
922.390015,0.315156
927.390015,0.312126
932.400024,0.310402
937.409973,0.309617
942.419983,0.305173
947.429993,0.298198
952.440002,0.28819
957.450012,0.281818
962.450012,0.27472
967.460022,0.274128
972.469971,0.271587
977.47998,0.270244
982.48999,0.270555
987.5,0.272073
992.51001,0.272759
997.52002,0.275328
1002.52002,0.279717
1007.530029,0.283327
1012.539978,0.285494
1017.549988,0.289767
1022.559998,0.293127
1027.569946,0.297054
1032.579956,0.299639
1037.579956,0.302099
1042.589966,0.305108
1047.599976,0.307175
1052.609985,0.306553
1057.619995,0.308397
1062.630005,0.310433
1067.640015,0.312119
1072.650024,0.313175
1077.650024,0.312449
1082.660034,0.31049
1087.670044,0.31062
1092.680054,0.309418
1097.689941,0.306905
1102.699951,0.306021
1107.709961,0.304191
1112.709961,0.303277
1117.719971,0.299371
1122.72998,0.296712
1127.73999,0.294
1132.75,0.284227
1137.76001,0.269508
1142.77002,0.253919
1147.780029,0.239541
1152.780029,0.231234
1157.790039,0.22527
1162.800049,0.220289
1167.810059,0.21868
1172.819946,0.216158
1177.829956,0.216
1182.839966,0.215521
1187.839966,0.214238
1192.849976,0.213451
1197.859985,0.213047
1202.869995,0.210525
1207.880005,0.211196
1212.890015,0.21114
1217.900024,0.213086
1222.910034,0.213063
1227.910034,0.214084
1232.920044,0.215282
1237.930054,0.216607
1242.939941,0.216844
1247.949951,0.218418
1252.959961,0.219345
1257.969971,0.220347
1262.969971,0.219668
1267.97998,0.218753
1272.98999,0.219257
1278.0,0.218363
1283.01001,0.216811
1288.02002,0.214169
1293.030029,0.211239
1298.040039,0.208534
1303.040039,0.204385
1308.050049,0.199715
1313.060059,0.19581
1318.069946,0.187765
1323.079956,0.182661
1328.089966,0.175571
1333.099976,0.169286
1338.099976,0.163498
1343.109985,0.156879
1433.27002,0.044792
1438.280029,0.04464
1443.290039,0.043592
1448.300049,0.040537
1453.300049,0.039785
1458.310059,0.038542
1463.319946,0.040154
1468.329956,0.042518
1473.339966,0.042396
1478.349976,0.04327
1483.359985,0.044321
1488.359985,0.045672
1493.369995,0.047466
1498.380005,0.048607
1503.390015,0.051125
1508.400024,0.052727
1513.410034,0.055289
1518.420044,0.057664
1523.430054,0.059889
1528.430054,0.062895
1533.439941,0.065757
1538.449951,0.068198
1543.459961,0.070804
1548.469971,0.073191
1553.47998,0.07596
1558.48999,0.078062
1563.48999,0.080614
1568.5,0.081507
1573.51001,0.084872
1578.52002,0.086997
1583.530029,0.089063
1588.540039,0.091048
1593.550049,0.092325
1598.560059,0.093921
1603.560059,0.096105
1608.569946,0.097926
1613.579956,0.100189
1618.589966,0.100481
1623.599976,0.102247
1628.609985,0.103845
1633.619995,0.104788
1638.619995,0.106073
1643.630005,0.107412
1648.640015,0.108529
1653.650024,0.109251
1658.660034,0.110481
1663.670044,0.109898
1668.680054,0.110811
1673.689941,0.11029
1678.689941,0.110762
1683.699951,0.110293
1688.709961,0.109023
1693.719971,0.109404
1698.72998,0.108476
1703.73999,0.107618
1708.75,0.105947
1713.75,0.105983
1718.76001,0.105215
1723.77002,0.103127
1728.780029,0.102224
1733.790039,0.10086
1738.800049,0.099672
1743.810059,0.098293
1748.819946,0.096132
1753.819946,0.094748
1758.829956,0.09251
1763.839966,0.089518
1768.849976,0.088431
1773.859985,0.087067
1954.170044,0.01332
1959.180054,0.01367
1964.189941,0.012748
1969.199951,0.012773
1974.209961,0.014287
1979.209961,0.013752
1984.219971,0.013332
1989.22998,0.014584
1994.23999,0.015132
1999.25,0.014244
2004.26001,0.012762
2009.27002,0.016191
2014.280029,0.014772
2019.280029,0.018472
2024.290039,0.018991
2029.300049,0.020141
2034.310059,0.020374
2039.319946,0.021338
2044.329956,0.022582
2049.340088,0.02336
2054.340088,0.023463
2059.350098,0.025433
2064.360107,0.024042
2069.370117,0.025951
2074.379883,0.028334
2079.389893,0.028233
2084.399902,0.030399
2089.409912,0.030938
2094.409912,0.031547
2099.419922,0.032644
2104.429932,0.033933
2109.439941,0.034551
2114.449951,0.035669
2119.459961,0.036201
2124.469971,0.036708
2129.469971,0.03826
2134.47998,0.038822
2139.48999,0.039739
2144.5,0.040434
2149.51001,0.041291
2154.52002,0.041699
2159.530029,0.040905
2164.540039,0.042418
2169.540039,0.043348
2174.550049,0.043475
2179.560059,0.043403
2184.570068,0.043908
2189.580078,0.044668
2194.590088,0.044566
2199.600098,0.044963
2204.600098,0.045926
2209.610107,0.045702
2214.620117,0.046447
2219.629883,0.046052
2224.639893,0.044649
2229.649902,0.045089
2234.659912,0.045444
2239.669922,0.043539
2244.669922,0.042407
2249.679932,0.041752
2254.689941,0.040519
2259.699951,0.040246
2264.709961,0.038269
2269.719971,0.037563
2274.72998,0.036885
2279.72998,0.036163
2284.73999,0.036279
2289.75,0.035788
2294.76001,0.034717
2299.77002,0.032427
2304.780029,0.032381
2309.790039,0.031349
2314.800049,0.02986
2319.800049,0.029974
2324.810059,0.029964
2329.820068,0.028729
2334.830078,0.02761
2339.840088,0.026571
2344.850098,0.027022
2349.860107,0.02563
2354.860107,0.024795
2359.870117,0.024448
2364.879883,0.023359
2369.889893,0.020493
2374.899902,0.021578
2379.909912,0.021061
2384.919922,0.022403
2389.929932,0.020632
2394.929932,0.020057
2399.939941,0.019655
2404.949951,0.019147
2409.959961,0.017582
2414.969971,0.01748
2419.97998,0.017893
2424.98999,0.016426
2429.98999,0.014941
2435.0,0.015949
2440.01001,0.014864
2445.02002,0.015299
2450.030029,0.014432
2455.040039,0.013907
2460.050049,0.012964
2465.060059,0.012648
2470.060059,0.012216
2475.070068,0.013595
2480.080078,0.015416
2485.090088,0.02413
2490.100098,0.021851
2495.110107,0.020477
2500.120117,0.019087
