wavelength,reflectance
381.450012,-0.030058
386.459991,-0.016441
391.470001,-0.010252
396.470001,-0.006771
401.480011,-9.1e-05
406.48999,0.003898
411.5,0.005669
416.51001,0.009518
421.519989,0.012497
426.529999,0.013272
431.540009,0.021041
436.540009,0.021372
441.549988,0.024537
446.559998,0.026685
451.570007,0.028901
456.579987,0.03143
461.589996,0.03525
466.600006,0.035744
471.600006,0.037907
476.609985,0.038242
481.619995,0.041263
486.630005,0.042434
491.640015,0.042421
496.649994,0.04486
501.660004,0.04636
506.670013,0.046815
511.670013,0.048822
516.679993,0.052393
521.690002,0.055011
526.700012,0.057883
531.710022,0.060394
536.719971,0.06259
541.72998,0.065071
546.72998,0.067294
551.73999,0.069276
556.75,0.068803
561.76001,0.068745
566.77002,0.068804
571.780029,0.067965
576.789978,0.067236
581.799988,0.067205
586.799988,0.068834
591.809998,0.069643
596.820007,0.069694
601.830017,0.069743
606.840027,0.069284
611.849976,0.069455
616.859985,0.06872
621.859985,0.068232
626.869995,0.069313
631.880005,0.070169
636.890015,0.070555
641.900024,0.069486
646.909973,0.069792
651.919983,0.070102
656.929993,0.070111
661.929993,0.068805
666.940002,0.069137
671.950012,0.068692
676.960022,0.068015
681.969971,0.069316
686.97998,0.072963
691.98999,0.078985
696.98999,0.089773
702.0,0.099988
707.01001,0.111947
712.02002,0.123236
717.030029,0.137695
722.039978,0.151566
727.049988,0.15854
732.059998,0.165921
737.059998,0.170703
742.070007,0.1763
747.080017,0.178996
752.090027,0.182025
757.099976,0.183829
762.109985,0.185756
767.119995,0.18643
772.119995,0.18902
777.130005,0.189553
782.140015,0.190629
787.150024,0.191411
792.159973,0.192136
797.169983,0.194481
802.179993,0.195889
807.190002,0.195111
812.190002,0.195775
817.200012,0.198485
822.210022,0.197871
827.219971,0.199095
832.22998,0.198795
837.23999,0.199206
842.25,0.199139
847.25,0.199887
852.26001,0.200576
857.27002,0.20198
862.280029,0.201774
867.289978,0.202242
872.299988,0.201146
877.309998,0.202783
882.320007,0.202549
887.320007,0.203223
892.330017,0.203005
897.340027,0.201443
902.349976,0.205099
907.359985,0.203215
912.369995,0.205127
917.380005,0.205116
922.390015,0.204602
927.390015,0.2002
932.400024,0.208595
937.409973,0.217763
942.419983,0.209387
947.429993,0.208379
952.440002,0.207421
957.450012,0.203523
962.450012,0.205031
967.460022,0.206163
972.469971,0.205141
977.47998,0.205977
982.48999,0.205622
987.5,0.206638
992.51001,0.207847
997.52002,0.207836
1002.52002,0.209976
1007.530029,0.21189
1012.539978,0.211563
1017.549988,0.214338
1022.559998,0.213468
1027.569946,0.213329
1032.579956,0.214292
1037.579956,0.215431
1042.589966,0.215256
1047.599976,0.215097
1052.609985,0.215177
1057.619995,0.215448
1062.630005,0.214915
1067.640015,0.215954
1072.650024,0.216459
1077.650024,0.218056
1082.660034,0.21684
1087.670044,0.216082
1092.680054,0.216132
1097.689941,0.215369
1102.699951,0.216121
1107.709961,0.213245
1112.709961,0.210046
1117.719971,0.217812
1122.72998,0.220478
1127.73999,0.224165
1132.75,0.212185
1137.76001,0.206251
1142.77002,0.201199
1147.780029,0.205485
1152.780029,0.200147
1157.790039,0.199977
1162.800049,0.201428
1167.810059,0.201754
1172.819946,0.203875
1177.829956,0.203833
1182.839966,0.205416
1187.839966,0.207528
1192.849976,0.206448
1197.859985,0.206914
1202.869995,0.204878
1207.880005,0.204594
1212.890015,0.2045
1217.900024,0.205003
1222.910034,0.204228
1227.910034,0.205035
1232.920044,0.205271
1237.930054,0.206276
1242.939941,0.20608
1247.949951,0.205484
1252.959961,0.205681
1257.969971,0.205441
1262.969971,0.204204
1267.97998,0.205013
1272.98999,0.205374
1278.0,0.206243
1283.01001,0.205154
1288.02002,0.204685
1293.030029,0.203752
1298.040039,0.201376
1303.040039,0.201148
1308.050049,0.199026
1313.060059,0.197322
1318.069946,0.195549
1323.079956,0.194212
1328.089966,0.189034
1333.099976,0.186029
1338.099976,0.182015
1343.109985,0.169674
1433.27002,0.13225
1438.280029,0.141093
1443.290039,0.143612
1448.300049,0.120763
1453.300049,0.116228
1458.310059,0.109915
1463.319946,0.113119
1468.329956,0.127574
1473.339966,0.116571
1478.349976,0.116537
1483.359985,0.119038
1488.359985,0.12083
1493.369995,0.122154
1498.380005,0.122743
1503.390015,0.125395
1508.400024,0.127821
1513.410034,0.129933
1518.420044,0.132809
1523.430054,0.13568
1528.430054,0.137999
1533.439941,0.139639
1538.449951,0.142175
1543.459961,0.1446
1548.469971,0.146066
1553.47998,0.147222
1558.48999,0.149906
1563.48999,0.152473
1568.5,0.154391
1573.51001,0.154958
1578.52002,0.156869
1583.530029,0.159311
1588.540039,0.158743
1593.550049,0.162607
1598.560059,0.163881
1603.560059,0.165893
1608.569946,0.166902
1613.579956,0.167862
1618.589966,0.168826
1623.599976,0.170866
1628.609985,0.170844
1633.619995,0.171945
1638.619995,0.171682
1643.630005,0.174228
1648.640015,0.174391
1653.650024,0.174771
1658.660034,0.175012
1663.670044,0.174881
1668.680054,0.175545
1673.689941,0.174731
1678.689941,0.174852
1683.699951,0.174714
1688.709961,0.174083
1693.719971,0.173032
1698.72998,0.172972
1703.73999,0.172385
1708.75,0.171302
1713.75,0.169985
1718.76001,0.16948
1723.77002,0.166607
1728.780029,0.166435
1733.790039,0.165048
1738.800049,0.164425
1743.810059,0.163288
1748.819946,0.162395
1753.819946,0.160213
1758.829956,0.158044
1763.839966,0.155771
1768.849976,0.151348
1773.859985,0.14933
1954.170044,0.10768
1959.180054,0.106909
1964.189941,0.08927
1969.199951,0.078973
1974.209961,0.077547
1979.209961,0.077687
1984.219971,0.077328
1989.22998,0.077417
1994.23999,0.078638
1999.25,0.088465
2004.26001,0.118365
2009.27002,0.093631
2014.280029,0.100923
2019.280029,0.09558
2024.290039,0.088438
2029.300049,0.088246
2034.310059,0.088904
2039.319946,0.091213
2044.329956,0.091334
2049.340088,0.096048
2054.340088,0.100962
2059.350098,0.100471
2064.360107,0.102344
2069.370117,0.103165
2074.379883,0.102131
2079.389893,0.10287
2084.399902,0.101259
2089.409912,0.103781
2094.409912,0.105189
2099.419922,0.107371
2104.429932,0.106805
2109.439941,0.108099
2114.449951,0.110031
2119.459961,0.111383
2124.469971,0.111172
2129.469971,0.111909
2134.47998,0.111533
2139.48999,0.111057
2144.5,0.113248
2149.51001,0.114802
2154.52002,0.114244
2159.530029,0.11506
2164.540039,0.116709
2169.540039,0.117008
2174.550049,0.117093
2179.560059,0.116158
2184.570068,0.117537
2189.580078,0.117117
2194.590088,0.116457
2199.600098,0.116482
2204.600098,0.115675
2209.610107,0.116854
2214.620117,0.116219
2219.629883,0.115234
2224.639893,0.115575
2229.649902,0.115466
2234.659912,0.113459
2239.669922,0.112434
2244.669922,0.110833
2249.679932,0.110682
2254.689941,0.1081
2259.699951,0.105655
2264.709961,0.105071
2269.719971,0.103768
2274.72998,0.103257
2279.72998,0.10033
2284.73999,0.099356
2289.75,0.098878
2294.76001,0.096849
2299.77002,0.095404
2304.780029,0.091267
2309.790039,0.091614
2314.800049,0.0908
2319.800049,0.090464
2324.810059,0.087908
2329.820068,0.087783
2334.830078,0.086862
2339.840088,0.08584
2344.850098,0.083709
2349.860107,0.084591
2354.860107,0.080747
2359.870117,0.080563
2364.879883,0.077992
2369.889893,0.079302
2374.899902,0.075311
2379.909912,0.073326
2384.919922,0.072733
2389.929932,0.072514
2394.929932,0.071978
2399.939941,0.067638
2404.949951,0.068411
2409.959961,0.067221
2414.969971,0.071611
2419.97998,0.065159
2424.98999,0.061436
2429.98999,0.057512
2435.0,0.062706
2440.01001,0.051692
2445.02002,0.058169
2450.030029,0.064684
2455.040039,0.052464
2460.050049,0.050772
2465.060059,0.047242
2470.060059,0.050998
2475.070068,0.055753
2480.080078,0.049692
2485.090088,0.114198
2490.100098,0.155864
2495.110107,0.103404
2500.120117,0.065014
